MJD  counts  counts_err  time_from_peak  norm_flux  norm_flux_err
 59473.709 -1.268E+01 1.414E+01   -25.021 -9.857E-03 1.100E-02
 59473.873 -1.929E+00 9.592E+00   -24.857 -1.500E-03 7.460E-03
 59474.123  1.992E+01 1.090E+01   -24.607  1.549E-02 8.476E-03
 59474.373  1.332E+01 1.018E+01   -24.357  1.036E-02 7.920E-03
 59474.623  6.271E+00 9.900E+00   -24.107  4.876E-03 7.699E-03
 59474.875 -1.564E+00 1.007E+01   -23.855 -1.216E-03 7.829E-03
 59475.123 -6.762E+00 1.072E+01   -23.607 -5.259E-03 8.333E-03
 59475.373  7.748E+00 8.005E+00   -23.357  6.026E-03 6.225E-03
 59475.623 -6.599E+00 8.377E+00   -23.107 -5.132E-03 6.515E-03
 59475.873 -8.028E+00 8.088E+00   -22.857 -6.243E-03 6.290E-03
 59476.123  5.876E+00 1.018E+01   -22.607  4.569E-03 7.919E-03
 59476.373  1.411E+01 1.005E+01   -22.357  1.097E-02 7.816E-03
 59476.623  2.524E+01 9.052E+00   -22.107  1.963E-02 7.040E-03
 59476.873  3.345E+01 1.079E+01   -21.857  2.601E-02 8.389E-03
 59477.123  5.067E+01 9.411E+00   -21.607  3.941E-02 7.318E-03
 59477.373  1.813E+01 9.387E+00   -21.357  1.410E-02 7.300E-03
 59477.611  3.122E+01 1.038E+01   -21.119  2.428E-02 8.070E-03
 59477.873  1.792E+01 6.355E+00   -20.857  1.393E-02 4.942E-03
 59478.123  2.652E+01 8.832E+00   -20.607  2.062E-02 6.868E-03
 59478.373  2.957E+01 8.670E+00   -20.357  2.300E-02 6.742E-03
 59478.623  2.560E+01 9.618E+00   -20.107  1.991E-02 7.479E-03
 59478.873  4.112E+01 9.450E+00   -19.857  3.198E-02 7.349E-03
 59479.123  4.626E+01 8.418E+00   -19.607  3.598E-02 6.547E-03
 59479.373  7.029E+01 1.177E+01   -19.357  5.466E-02 9.149E-03
 59479.623  9.099E+01 8.933E+00   -19.107  7.076E-02 6.947E-03
 59479.873  1.036E+02 8.911E+00   -18.857  8.058E-02 6.930E-03
 59480.123  1.161E+02 8.833E+00   -18.607  9.026E-02 6.869E-03
 59480.373  1.375E+02 1.091E+01   -18.357  1.069E-01 8.487E-03
 59480.623  1.654E+02 7.232E+00   -18.107  1.286E-01 5.624E-03
 59480.873  1.870E+02 1.041E+01   -17.857  1.454E-01 8.095E-03
 59481.123  1.945E+02 9.041E+00   -17.607  1.512E-01 7.031E-03
 59481.373  2.166E+02 1.056E+01   -17.357  1.684E-01 8.213E-03
 59481.612  2.430E+02 1.105E+01   -17.118  1.890E-01 8.591E-03
 59481.873  2.855E+02 1.055E+01   -16.857  2.220E-01 8.206E-03
 59482.123  2.909E+02 8.996E+00   -16.607  2.262E-01 6.996E-03
 59482.373  3.482E+02 1.016E+01   -16.357  2.708E-01 7.905E-03
 59482.623  3.377E+02 1.071E+01   -16.107  2.626E-01 8.327E-03
 59482.873  3.564E+02 1.040E+01   -15.857  2.772E-01 8.086E-03
 59486.901  7.368E+02 1.059E+01   -11.829  5.730E-01 8.239E-03
 59487.123  7.875E+02 1.210E+01   -11.607  6.124E-01 9.410E-03
 59487.373  8.129E+02 1.057E+01   -11.357  6.321E-01 8.222E-03
 59487.623  8.279E+02 7.807E+00   -11.107  6.438E-01 6.071E-03
 59487.873  8.119E+02 8.298E+00   -10.857  6.314E-01 6.453E-03
 59488.123  8.679E+02 9.541E+00   -10.607  6.749E-01 7.420E-03
 59488.373  8.790E+02 9.324E+00   -10.357  6.836E-01 7.251E-03
 59488.623  8.801E+02 1.048E+01   -10.107  6.844E-01 8.152E-03
 59488.873  8.958E+02 8.632E+00    -9.857  6.966E-01 6.713E-03
 59489.123  9.327E+02 9.690E+00    -9.607  7.253E-01 7.536E-03
 59489.373  9.447E+02 9.288E+00    -9.357  7.346E-01 7.223E-03
 59489.623  9.819E+02 9.253E+00    -9.107  7.636E-01 7.196E-03
 59489.873  9.848E+02 9.568E+00    -8.857  7.658E-01 7.441E-03
 59490.123  1.002E+03 8.027E+00    -8.607  7.796E-01 6.242E-03
 59490.373  1.016E+03 9.927E+00    -8.357  7.899E-01 7.720E-03
 59490.623  1.033E+03 8.055E+00    -8.107  8.034E-01 6.264E-03
 59490.873  1.034E+03 8.228E+00    -7.857  8.044E-01 6.398E-03
 59491.123  1.049E+03 9.692E+00    -7.607  8.155E-01 7.537E-03
 59491.373  1.080E+03 1.114E+01    -7.357  8.402E-01 8.664E-03
 59491.623  1.090E+03 8.341E+00    -7.107  8.473E-01 6.486E-03
 59491.873  1.094E+03 1.286E+01    -6.857  8.511E-01 1.000E-02
 59492.123  1.113E+03 1.031E+01    -6.607  8.658E-01 8.019E-03
 59492.362  1.123E+03 1.233E+01    -6.368  8.733E-01 9.588E-03
 59492.623  1.156E+03 8.925E+00    -6.107  8.988E-01 6.941E-03
 59492.873  1.161E+03 1.078E+01    -5.857  9.030E-01 8.384E-03
 59493.124  1.183E+03 8.062E+00    -5.606  9.196E-01 6.270E-03
 59493.374  1.181E+03 7.938E+00    -5.356  9.185E-01 6.173E-03
 59493.624  1.183E+03 8.781E+00    -5.106  9.198E-01 6.829E-03
 59493.874  1.211E+03 1.056E+01    -4.856  9.417E-01 8.215E-03
 59494.124  1.191E+03 7.717E+00    -4.606  9.259E-01 6.001E-03
 59494.374  1.187E+03 9.162E+00    -4.356  9.233E-01 7.125E-03
 59494.624  1.208E+03 1.104E+01    -4.106  9.392E-01 8.586E-03
 59494.874  1.236E+03 1.279E+01    -3.856  9.609E-01 9.947E-03
 59495.124  1.243E+03 9.154E+00    -3.606  9.665E-01 7.118E-03
 59495.374  1.229E+03 9.452E+00    -3.356  9.556E-01 7.350E-03
 59495.624  1.247E+03 1.129E+01    -3.106  9.697E-01 8.780E-03
 59495.874  1.249E+03 1.174E+01    -2.856  9.716E-01 9.127E-03
 59496.124  1.272E+03 1.110E+01    -2.606  9.891E-01 8.634E-03
 59496.374  1.272E+03 9.939E+00    -2.356  9.893E-01 7.729E-03
 59496.624  1.278E+03 1.003E+01    -2.106  9.936E-01 7.803E-03
 59496.874  1.283E+03 1.012E+01    -1.856  9.977E-01 7.868E-03
 59497.124  1.303E+03 7.281E+00    -1.606  1.013E+00 5.662E-03
 59497.374  1.274E+03 9.661E+00    -1.356  9.911E-01 7.513E-03
 59497.599  1.288E+03 8.885E+00    -1.131  1.001E+00 6.909E-03